#   1 XWIN_IMAGE             Windowed position estimate along x                         [pixel]
#   2 YWIN_IMAGE             Windowed position estimate along y                         [pixel]
#   3 ALPHA_J2000            Right ascension of barycenter (J2000)                      [deg]
#   4 DELTA_J2000            Declination of barycenter (J2000)                          [deg]
#   5 MAG_AUTO               Kron-like elliptical aperture magnitude                    [mag]
#   6 FWHM_IMAGE             FWHM assuming a gaussian core                              [pixel]
#   7 ELONGATION             A_IMAGE/B_IMAGE                                           
#   8 MAG_APER               Fixed aperture magnitude vector                            [mag]
#  13 MAGERR_APER            RMS error vector for fixed aperture mag.                   [mag]
#  18 FLUX_APER              Flux vector within fixed circular aperture(s)              [count]
#  23 FLUXERR_APER           RMS error vector for aperture flux(es)                     [count]
   120.5267     14.4733 213.2240786 -10.2770772  99.0000     1.51    2.643  -7.1990  99.0000  99.0000  99.0000  99.0000   2.0096  99.0000  99.0000  99.0000  99.0000     757.8852    -492.7398    -1274.843    -1925.459    -1186.535     1402.462      2335.31     3273.738      4210.04     4687.339
   242.5048    239.4952 213.2196022 -10.2689517  -7.4948     1.51    2.646  -6.9768  99.0000  99.0000  99.0000  99.0000   2.3365  99.0000  99.0000  99.0000  99.0000     617.6228    -291.0963    -2642.047    -4210.527    -6622.147     1328.811     2022.438     2695.202     3362.984     3718.086
   167.3829    239.7934 213.2223731 -10.2689526  -8.2326     0.96    1.998  -7.6167  -7.0765  99.0000  99.0000  99.0000   1.3083   3.2706  99.0000  99.0000  99.0000     1113.432     677.0292    -1739.551    -4407.987    -4837.513     1341.368     2038.948      2722.02      3392.76     3701.518
   294.0196    238.5413 213.2177124 -10.2689868  -8.3789     0.96    1.999  -7.9364  -8.9232  -8.8101  -8.5669  -8.3128   1.0219   0.6667   0.9758   1.5072   2.0744     1494.726     3709.153      3342.22     2671.518     2114.012     1406.442     2277.163     3003.112     3707.552     4037.963
   215.5308    238.0000 213.2205921 -10.2690057  -7.8400     0.96    1.997  99.0000  -8.3687  -7.2354  99.0000  99.0000  99.0000   1.1452   4.3456  99.0000  99.0000    -188.3863     2225.854     783.7095    -494.2454    -1902.145      1406.44     2347.244     3135.999      3852.42     4200.738
   236.6065    235.3644 213.2198187 -10.2691009  99.0000     5.53    1.767  99.0000  99.0000  99.0000  99.0000  99.0000  99.0000  99.0000  99.0000  99.0000  99.0000    -98.36613    -1926.884    -3111.279     -6863.46     -8572.75     1414.364     2347.243     3278.854      4214.02     4684.954
   169.5032    235.4968 213.2222812 -10.2690961  99.0000     1.51    2.646  99.0000  99.0000  99.0000  99.0000  99.0000  99.0000  99.0000  99.0000  99.0000  99.0000    -31.89403    -3851.293    -2569.927    -3386.965    -4475.008      1394.47      2335.31     3268.613     4202.068     4696.866
   146.0000    235.4424 213.2231437 -10.2690980  -8.0136     0.96    1.990  -7.5977  -5.8049  99.0000  99.0000  99.0000   1.4038  12.1459  99.0000  99.0000  99.0000     1094.187     209.8738    -1306.614    -2807.343    -1846.983     1414.365     2347.243      3277.15      4214.02     4682.568
   319.9870    235.2102 213.2167746 -10.2691301  -7.8836     1.51    2.632  -8.0333  -7.2191  -8.0799  -9.1297  -9.2497   0.8717   2.8255   1.7091   0.8113   0.8000     1634.326     772.0175     1705.987     4486.117     5010.352     1311.884     2008.576     2684.816     3351.335     3690.937
   194.2422    233.7276 213.2213733 -10.2691600  -7.6806     2.20    1.893  -8.2828  -8.3661  -8.5700  -8.3396  -7.8383   0.7427   1.1457   1.3291   2.1133   3.7239     2056.463     2220.446      2679.19     2166.905     1365.585     1406.442     2342.478     3278.855     4216.671     4682.568
   164.9124    232.9960 213.2224624 -10.2691862  -6.0915     0.96    1.987  99.0000  99.0000  99.0000  99.0000  99.0000  99.0000  99.0000  99.0000  99.0000  99.0000    -342.0516    -723.9647    -3361.443    -6265.126    -8305.576     1414.364     2347.243      3277.15     4211.367     4680.181
   112.5398    232.4602 213.2243716 -10.2692057  -7.7638     1.51    2.639  -8.3931  -7.3980  99.0000  99.0000  99.0000   0.6747   2.7975  99.0000  99.0000  99.0000      2276.43     910.2986     -2561.27    -7837.735    -10832.84     1414.366     2344.862     3280.558     4217.996     4686.146
   209.4062    231.4062 213.2208168 -10.2692438  -7.3475     1.50    2.606  -8.0719  -6.0565  99.0000  99.0000  99.0000   0.9020   9.6142  99.0000  99.0000  99.0000     1693.349     264.6001    -1510.225    -515.0803    -1259.155     1406.442     2342.477     3283.963      4219.32     4674.207
   149.3000    231.0954 213.2230519 -10.2692405  -7.8226     1.51    2.646  -7.9745  -8.5080  -8.2702  -8.3052  -7.1657   0.9726   0.9982   1.7444   2.1737   6.9437     1548.039     2530.411     2032.814     2099.389     734.9702     1386.434     2325.721     3265.193     4202.069     4699.245
   105.0873    231.2949 213.2246451 -10.2692478  -7.4082     3.63    1.839  -7.8810  -6.7479  99.0000  99.0000  99.0000   1.0723   5.0698  99.0000  99.0000  99.0000     1420.389     500.2412     -283.745    -3769.246    -5244.925     1402.463      2335.31     3270.322     4200.739     4695.676
    10.6715    231.8848 213.2281164 -10.2692223  -9.8399     0.97    2.000  -8.9058  -9.3242  -9.7284 -10.0970 -10.2988   0.4185   0.4731   0.4571   0.4188   0.3856     3650.064     5366.122     7786.719     10934.21     13167.59     1406.444     2337.705     3277.153     4216.674     4675.407
   141.6896    230.0740 213.2233019 -10.2692919  -8.4434     2.53    4.512  -8.0978  99.0000  99.0000  99.0000  99.0000   0.8757  99.0000  99.0000  99.0000  99.0000     1734.308    -309.1984    -2246.773    -2181.343    -1547.785     1398.473      2340.09     3270.322     4206.056     4694.486
   121.5178    230.4822 213.2240422 -10.2692771  99.0000     1.51    2.644  -7.6062  99.0000  99.0000  99.0000  99.0000   1.3733  99.0000  99.0000  99.0000  99.0000     1102.728    -681.5336    -3810.562    -5239.974     -7550.23     1394.471      2340.09     3272.031     4204.727     4692.105
   108.5700    230.5700 213.2245173 -10.2692740  -7.4306     1.51    2.623  -7.5530  -5.1896  99.0000  99.0000  99.0000   1.4629  21.4059  99.0000  99.0000  99.0000     1049.993     119.0841    -3176.503    -11085.16    -15137.76     1414.365     2347.243     3280.558     4217.996     4681.375
   206.4870    230.0000 213.2209240 -10.2692946  -8.4938     0.96    1.999  -7.2192  99.0000  99.0000  99.0000  99.0000   1.9782  99.0000  99.0000  99.0000  99.0000      772.105    -195.6452    -1821.812    -4911.804    -4703.204     1406.441     2347.243     3280.558      4219.32     4675.402
   195.4475    229.4475 213.2213291 -10.2693145  -6.0570     1.51    2.633  -6.8659  99.0000  99.0000  99.0000  99.0000   2.7543  99.0000  99.0000  99.0000  99.0000     557.6648    -1290.783    -1304.123    -3801.014    -5563.614     1414.364     2344.861     3280.558     4215.345     4686.146
   111.9343    229.3667 213.2243939 -10.2693174  -8.4670     2.53    4.452  -6.0109  99.0000  99.0000  99.0000  99.0000   6.0199  99.0000  99.0000  99.0000  99.0000     253.7253    -2183.372    -2978.051    -8246.553     -10575.1      1406.44     2344.861     3283.963     4215.345     4683.761
    85.2908    227.9105 213.2253716 -10.2693700  99.0000     3.63    1.852  -7.5073  99.0000  99.0000  99.0000  99.0000   1.5128  99.0000  99.0000  99.0000  99.0000     1006.784    -486.9786    -2711.939    -3645.372     -5367.21     1402.463      2335.31     3268.613     4200.739     4694.486
   307.4334    227.5666 213.2172195 -10.2693824  -5.6167     1.51    2.626  -6.5020  99.0000  99.0000  99.0000  99.0000   3.8511  99.0000  99.0000  99.0000  99.0000     398.8455    -2546.017    -1445.514    -2546.104    -3456.932     1414.364     2349.622     3280.558     4217.996     4688.531
   201.0000    235.4332 213.2211253 -10.2690984  -7.8150     0.96    1.987  -7.7134  -7.7525  -7.6262  -8.5624  -9.0813   1.2619   2.0202   3.1685   1.7191   1.1846     1217.212     1261.786     1123.237     2660.472     4290.527     1414.365     2347.244      3277.15     4211.368     4680.182
   109.4339    227.4339 213.2244856 -10.2693872  99.0000     1.51    2.626  99.0000  99.0000  99.0000  99.0000  99.0000  99.0000  99.0000  99.0000  99.0000  99.0000    -909.4141    -5147.225    -5486.777    -8947.722    -9007.128     1414.364     2349.622     3280.558     4217.996     4688.531
   265.4053    226.5947 213.2187618 -10.2694175  -5.5972     1.50    2.605  -5.6640  99.0000  99.0000  99.0000  99.0000   8.2860  99.0000  99.0000  99.0000  99.0000     184.3339    -871.9462    -3979.691    -2484.256    -2662.984      1406.44     2342.477     3290.762      4219.32     4674.207
   223.6311    224.3287 213.2203177 -10.2694749  -9.0632     3.48    4.203  -8.0857  -7.5155  -8.6970  -9.0501  -8.8852   0.8906   2.5079   1.1842   1.0991   1.4172     1715.048     1014.353     3011.714     4169.114     3581.782     1406.442     2342.478     3283.964     4219.321     4674.208
   184.4847    226.4847 213.2217314 -10.2694215  99.0000     1.51    2.645  99.0000  99.0000  99.0000  99.0000  99.0000  99.0000  99.0000  99.0000  99.0000  99.0000    -301.2929     -2362.68    -6627.323    -9415.565    -8227.244     1402.461      2335.31     3275.444     4204.727     4692.105
   149.3284    225.0171 213.2230216 -10.2694745  -8.2866     2.54    4.246  -7.5674  99.0000  99.0000  99.0000  99.0000   1.4395  99.0000  99.0000  99.0000  99.0000     1064.049    -891.6591    -2362.463     -3076.76    -2392.804     1410.409     2344.861     3283.963     4217.996     4683.761
   236.4338    224.5662 213.2198250 -10.2694908  99.0000     1.51    2.626  99.0000  99.0000  99.0000  99.0000  99.0000  99.0000  99.0000  99.0000  99.0000  99.0000    -625.8853    -2800.117     -3157.07    -5782.797     -7464.18     1414.364     2349.622     3280.558     4217.996     4688.531
   308.5248    223.4752 213.2171794 -10.2695301  99.0000     1.51    2.643  -7.1078  99.0000  99.0000  99.0000  99.0000   2.1732  99.0000  99.0000  99.0000  99.0000     696.8507    -727.9805    -980.9361    -3263.174    -4742.444     1394.471      2335.31     3268.613      4210.04     4689.722
   185.4911    223.5089 213.2216945 -10.2695290  99.0000     1.51    2.645  99.0000  99.0000  99.0000  99.0000  99.0000  99.0000  99.0000  99.0000  99.0000  99.0000    -91.08898     -3224.94    -4785.366    -8497.207     -10741.4     1402.461      2335.31     3268.613     4199.408     4694.486
   289.0000    222.6091 213.2178959 -10.2695614  -8.0929     0.95    1.964  -6.7563  -7.4445  -5.2852  99.0000  99.0000   3.0299   2.6772  27.4240  99.0000  99.0000     504.1119     950.2043     130.0461    -3486.888    -4528.832     1406.441     2342.478     3283.963      4219.32      4670.62
   213.2341    222.0933 213.2207012 -10.2695674  -7.2139     1.51    2.631  -7.5445  99.0000  -6.7344  -8.4115  -8.5040   1.4577  99.0000   7.2114   1.9773   2.0196     1041.878    -260.9921      494.038     2315.201     2521.119     1398.473      2340.09     3280.558     4215.346     4688.531
    91.5864    222.5864 213.2251406 -10.2695623  99.0000     1.51    2.612  99.0000  99.0000  99.0000  99.0000  99.0000  99.0000  99.0000  99.0000  99.0000  99.0000    -703.8777    -2751.632    -7655.024    -10821.26    -12615.11      1406.44     2342.477     3280.558      4219.32     4678.987
   247.4862    221.4862 213.2194194 -10.2696020  -7.3608     1.51    2.645  -7.4509  99.0000  99.0000  99.0000  99.0000   1.5935  99.0000  99.0000  99.0000  99.0000     955.8125    -1299.912     -5832.57    -7616.062    -9793.867     1402.462      2335.31     3272.031     4202.068     4692.105
   205.4928    226.4928 213.2209605 -10.2694212  -7.9236     1.51    2.646  -8.5045  -7.8013  -6.4032  -7.4158  99.0000   0.6038   1.9216   9.7482   4.9285  99.0000      2522.34     1319.814       364.14     925.3525    -1920.716     1402.464     2335.311     3268.613     4199.408     4694.486
   141.5202    222.0000 213.2233081 -10.2695834  -8.2503     0.96    1.999  -7.3049  -6.5170  -8.1225  -8.4065  -6.7573   1.8281   6.3039   2.0081   1.9896  10.0630     835.4932      404.372     1774.118      2304.56     504.5687     1406.441     2347.243     3280.559     4221.969     4675.403
    23.0000    221.5276 213.2276576 -10.2696005  -7.1273     0.96    1.998  99.0000  99.0000  99.0000  99.0000  99.0000  99.0000  99.0000  99.0000  99.0000  99.0000    -1285.841    -6346.243    -11130.19    -17447.74    -20652.21      1406.44     2342.477     3280.558      4219.32     4675.402
   165.6743    222.0508 213.2224217 -10.2695816  -8.3297     2.53    4.592  -8.0408  99.0000  99.0000  99.0000  99.0000   0.9255  99.0000  99.0000  99.0000  99.0000      1645.62    -1800.443    -201.6031    -1384.416    -438.0828     1402.463     2342.477     3280.558     4217.996     4684.954
   187.7217    218.9848 213.2216126 -10.2696923  -8.2035     3.64    1.896  -8.5465  -7.8689  -7.3824  99.0000  99.0000   0.5842   1.8130   3.9742  99.0000  99.0000     2621.817     1404.595     897.3732    -403.4163    -990.9601      1410.41     2344.862     3283.963      4219.32     4684.954
   157.4992    219.5008 213.2227217 -10.2696737  -7.2406     1.51    2.646  -6.8522  -7.9449  -6.9023  99.0000  99.0000   2.7344   1.6766   6.1426  99.0000  99.0000     550.6479     1506.442     576.6702    -2997.373    -4217.943     1386.433      2325.72     3261.768     4196.746     4699.245
    97.9341    219.0051 213.2249237 -10.2696736  -7.7661     1.51    2.646  -8.0220  -8.0449  -7.6899  99.0000  99.0000   0.9309   1.5354   2.9801  99.0000  99.0000     1617.347     1651.804      1191.12    -845.1154    -2189.268     1386.434     2335.311     3268.614     4202.068     4696.866
   277.0314    218.8780 213.2183555 -10.2697106  -8.6732     1.51    2.644  -8.3340  -8.5965  -8.7521  -8.3425  99.0000   0.7025   0.9257   1.1215   2.1044  99.0000     2155.694     2745.364     3168.439     2172.638    -464.5914     1394.472     2340.092     3272.032     4210.041     4692.105
   194.5189    218.4811 213.2213632 -10.2697105  99.0000     1.51    2.644  -6.7685  99.0000  -8.4855  -8.4663  -8.7829   2.9705  99.0000   1.4337   1.8753   1.5641     509.8122    -614.5831     2478.519     2435.015     3259.419     1394.471      2340.09     3272.031     4204.728     4694.487
    76.0000    218.4675 213.2257126 -10.2697110  -6.9750     0.96    1.997  -7.0706  99.0000  99.0000  99.0000  99.0000   2.2810  99.0000  99.0000  99.0000  99.0000     673.3771    -1750.691    -3122.095    -6145.952    -8038.786     1414.364     2351.999     3283.963      4219.32     4680.181
   302.3917    217.7619 213.2174147 -10.2697279  -8.7594     2.96    3.077  -8.5015  -6.7111  99.0000  99.0000  99.0000   0.6072   5.2719  99.0000  99.0000  99.0000     2515.448     483.5293    -2017.485    -2294.495    -1565.232     1406.443     2347.243     3280.558      4219.32     4677.792
   266.4881    218.0000 213.2187221 -10.2697279  -8.3481     0.96    2.000  99.0000  99.0000  99.0000  99.0000  99.0000  99.0000  99.0000  99.0000  99.0000  99.0000    -110.4007    -793.0732    -3992.179    -5822.357    -7069.953      1406.44     2347.243     3280.558      4219.32     4677.792
   122.0000    217.4223 213.2240245 -10.2697487  -8.8021     0.96    1.982  -8.1223  -2.2126  99.0000  99.0000  99.0000   0.8610 332.1750  99.0000  99.0000  99.0000     1773.883     7.673986    -4642.705    -4053.439    -3328.619     1406.442     2347.243     3280.558      4216.67     4677.792
   109.4498    217.5502 213.2244850 -10.2697441  -6.3712     1.51    2.634  -8.0049  99.0000  99.0000  99.0000  99.0000   0.9648  99.0000  99.0000  99.0000  99.0000     1592.073    -791.6061    -1963.659    -4126.181    -4179.427     1414.365     2349.622     3280.558     4220.644     4686.146
   113.4385    216.4385 213.2243387 -10.2697843  -6.9369     1.51    2.629  -7.2088  -2.8142  99.0000  99.0000  99.0000   1.9972 190.6676  99.0000  99.0000  99.0000     764.7791     13.35581    -617.5619    -335.7575    -1150.901     1406.441     2344.861     3283.963     4215.345     4688.531
   136.5954    214.9675 213.2234888 -10.2698374  99.0000     2.60    1.573  -6.2366  99.0000  99.0000  99.0000  99.0000   4.9178  99.0000  99.0000  99.0000  99.0000     312.3371    -1385.504    -2155.875    -8229.101    -8777.676     1414.364     2344.861     3278.854      4214.02     4682.568
    91.5143    215.5143 213.2251432 -10.2698176  99.0000     1.51    2.645  -5.9266  99.0000  99.0000  99.0000  99.0000   6.4873  99.0000  99.0000  99.0000  99.0000      234.779    -863.3017    -2397.306    -4813.969    -6117.729     1402.462      2335.31     3275.444     4204.727     4692.105
    66.8068    214.5148 213.2260499 -10.2698537  99.0000     5.01    1.842  -7.7550  -7.1009  99.0000  99.0000  99.0000   1.2111   3.6815  99.0000  99.0000  99.0000     1264.748     692.4091     -1911.17     -3738.04    -4950.511     1410.409     2347.243     3282.261     4217.996     4678.987
   296.5399    214.4601 213.2176192 -10.2698557  -8.0516     1.51    2.639  -7.7457  -7.7339  99.0000  99.0000  99.0000   1.2250   2.0531  99.0000  99.0000  99.0000      1253.92     1240.351    -536.1605    -1865.326    -590.9704     1414.365     2344.862     3280.558     4217.996     4687.339
   282.5245    215.0000 213.2181336 -10.2698362  -7.7600     0.96    1.998  -7.3489  -7.5017  -5.8224  99.0000  99.0000   1.7555   2.5399  16.7045  99.0000  99.0000     870.0595     1001.576     213.2766     -1194.28    -1219.219     1406.441     2342.478     3280.558      4219.32     4675.402
   196.7582    215.0045 213.2212568 -10.2698513  -8.1200     1.51    2.615  -7.9417  -8.1350  -8.4207  -7.2543  99.0000   1.0226   1.4203   1.5242   5.7460  99.0000     1502.065     1794.812     2334.917     797.4599    -484.4009     1414.365     2347.244     3277.151      4219.32     4683.761
    96.6090    214.0210 213.2249563 -10.2698716  -7.4665     2.85    1.599  -8.1784  -8.2910  99.0000  99.0000  99.0000   0.8177   1.2289  99.0000  99.0000  99.0000     1867.898     2072.141    -948.3021    -3434.686     -5763.99     1406.442     2344.863     3280.558     4220.644     4682.568
   203.0000    213.4592 213.2210519 -10.2698919  -8.5712     0.96    1.995  -7.8522  99.0000  99.0000  -5.9431  -6.3510   1.1043  99.0000  99.0000  19.2362  14.6450     1383.167    -284.7533    -2009.741     238.3555     347.0583     1406.442     2347.243     3283.963     4221.968     4680.181
   244.2746    211.8339 213.2195372 -10.2699505  -7.8159     3.20    1.897  -8.4559  99.0000  99.0000  99.0000  99.0000   0.6333  99.0000  99.0000  99.0000  99.0000      2411.92    -406.5703    -1811.736    -2512.432    -4888.875     1406.443     2342.477     3283.963      4219.32     4683.761
   134.4818    213.0000 213.2235664 -10.2699084  -7.1632     0.96    1.999  99.0000  99.0000  99.0000  99.0000  99.0000  99.0000  99.0000  99.0000  99.0000  99.0000     -331.289    -2554.522    -2944.639    -4390.342    -7091.809      1406.44     2347.243     3280.558     4221.968     4675.402
    81.5324    212.5324 213.2255095 -10.2699253  99.0000     1.51    2.641  99.0000  99.0000  99.0000  99.0000  99.0000  99.0000  99.0000  99.0000  99.0000  99.0000    -524.5693    -337.9538    -1869.637    -3568.436    -5712.684     1402.461      2335.31      3277.15     4215.345     4687.339
   305.2494    210.8378 213.2172996 -10.2699865  -8.4726     4.66    1.885  -8.4045  -7.9939  -7.4578  -8.6123  -8.7789   0.6640   1.6175   3.7038   1.6429   1.5666       2300.4     1575.979      961.904     2785.611     3247.665     1406.442     2347.244     3280.559     4214.021     4684.955
